#RAD(Kpc) RAD(arcs)  VROT(km/s) DISP(km/s) INC(deg)  P.A.(deg) Z0(pc)    Z0(arcs)  SIG(E20)  XPOS(pix) YPOS(pix) VSYS(km/s) VRAD(km/s) 
0.138     15.000     3.169      74.025     60.097    124.197   92.117    10.000    1.000     404.026   412.252   133.000    -41.086    
0.415     45.000     23.142     17.048     60.097    124.197   92.117    10.000    1.000     404.026   412.252   133.000    1.143      
0.691     75.000     39.384     11.313     60.097    124.197   92.117    10.000    1.000     404.026   412.252   133.000    1.984      
0.967     105.000    49.254     12.836     60.097    124.197   92.117    10.000    1.000     404.026   412.252   133.000    3.368      
1.244     135.000    55.234     12.480     60.097    124.197   92.117    10.000    1.000     404.026   412.252   133.000    4.195      
1.520     165.000    62.289     11.961     60.097    124.197   92.117    10.000    1.000     404.026   412.252   133.000    4.875      
1.796     195.000    66.468     10.466     60.097    124.197   92.117    10.000    1.000     404.026   412.252   133.000    -5.190     
2.073     225.000    78.713     10.690     60.097    124.197   92.117    10.000    1.000     404.026   412.252   133.000    -20.076    
2.349     255.000    80.503     10.598     60.097    124.197   92.117    10.000    1.000     404.026   412.252   133.000    -5.361     
2.625     285.000    87.414     10.303     60.097    124.197   92.117    10.000    1.000     404.026   412.252   133.000    -14.788    
2.902     315.000    92.613     8.795      60.097    124.197   92.117    10.000    1.000     404.026   412.252   133.000    -11.910    
3.178     345.000    94.950     8.739      60.097    124.197   92.117    10.000    1.000     404.026   412.252   133.000    1.008      
3.454     375.000    97.326     5.493      60.097    124.197   92.117    10.000    1.000     404.026   412.252   133.000    4.255      
3.731     405.000    97.128     7.752      60.097    124.197   92.117    10.000    1.000     404.026   412.252   133.000    -4.701     
4.007     435.000    97.259     7.872      60.097    124.197   92.117    10.000    1.000     404.026   412.252   133.000    -17.744    
4.283     465.000    92.840     7.129      60.097    124.197   92.117    10.000    1.000     404.026   412.252   133.000    -15.194    
4.560     495.000    94.013     5.233      60.097    124.197   92.117    10.000    1.000     404.026   412.252   133.000    -9.742     
4.836     525.000    97.617     5.354      60.097    124.197   92.117    10.000    1.000     404.026   412.252   133.000    -15.896    
5.112     555.000    100.675    4.415      60.097    124.197   92.117    10.000    1.000     404.026   412.252   133.000    -14.506    
5.389     585.000    99.927     3.552      60.097    124.197   92.117    10.000    1.000     404.026   412.252   133.000    -10.914    
5.665     615.000    99.660     3.591      60.097    124.197   92.117    10.000    1.000     404.026   412.252   133.000    -7.697     
5.942     645.000    101.434    1.297      60.097    124.197   92.117    10.000    1.000     404.026   412.252   133.000    -12.852    
